File: DATA-PRACTICUM1/exercises/data/multi_csv/60G_4_B.csv
Filename,60G_4_B
Instrument name,RSAG2
Operator,
rundate,5/31/2018
proceduresegments,Standard Oscillatory Temperature Ramp
[step]
Temperature Ramp - 1
Angular frequency,Step time,Temperature,Oscillation strain,Oscillation stress,Tan(delta),Storage modulus,Loss modulus,Complex modulus
rad/s,s,Â°C,%,Pa,,Pa,Pa,Pa
6.28319,8.02500,28.957,0.0155944,289421,0.0389883,1.85452e9,7.23047e7,1.85593e9
6.28319,16.3083,30.731,0.0156035,288768,0.0383686,1.84931e9,7.09554e7,1.85067e9
6.28319,24.5917,32.909,0.0156197,287718,0.0390106,1.84062e9,7.18036e7,1.84202e9
6.28319,32.8772,35.486,0.0156440,286204,0.0393985,1.82807e9,7.20230e7,1.82948e9
6.28319,41.1603,38.144,0.0156770,284345,0.0413582,1.81223e9,7.49503e7,1.81377e9
6.28319,50.4115,41.263,0.0157290,281332,0.0432705,1.78695e9,7.73221e7,1.78862e9
6.28319,58.6990,44.117,0.0157855,278084,0.0463775,1.75974e9,8.16126e7,1.76164e9
6.28319,66.9843,46.971,0.0158502,274410,0.0492732,1.72918e9,8.52021e7,1.73128e9
6.28319,75.2677,49.804,0.0159179,270245,0.0496243,1.69566e9,8.41459e7,1.69775e9
6.28319,83.5530,52.641,0.0160040,265188,0.0542040,1.65458e9,8.96848e7,1.65701e9
6.28319,91.8363,55.405,0.0160970,259738,0.0579223,1.61088e9,9.33060e7,1.61358e9
6.28319,100.122,58.185,0.0161881,254245,0.0617321,1.56758e9,9.67698e7,1.57056e9
6.28319,114.385,62.952,0.0163625,243258,0.0686551,1.48319e9,1.01828e8,1.48668e9
6.28319,122.656,65.717,0.0164721,236842,0.0750798,1.43379e9,1.07649e8,1.43783e9
6.28319,131.369,68.641,0.0166009,228972,0.0795206,1.37494e9,1.09336e8,1.37928e9
6.28319,139.633,71.386,0.0167126,222056,0.0844333,1.32396e9,1.11786e8,1.32867e9
6.28319,150.888,75.165,0.0168657,212362,0.0906703,1.25399e9,1.13700e8,1.25913e9
6.28319,159.159,77.933,0.0169781,205404,0.0948023,1.20441e9,1.14181e8,1.20981e9
6.28319,167.444,80.712,0.0170830,198799,0.0987866,1.15809e9,1.14403e8,1.16372e9
6.28319,175.730,83.518,0.0171786,192506,0.101713,1.11486e9,1.13396e8,1.12062e9
6.28319,184.013,86.320,0.0172774,186372,0.106974,1.07259e9,1.14739e8,1.07871e9
6.28319,192.299,89.114,0.0173650,180471,0.107987,1.03327e9,1.11580e8,1.03928e9
6.28319,200.582,91.892,0.0174539,174836,0.113784,9.95281e8,1.13248e8,1.00170e9
6.28319,208.867,94.670,0.0175322,169483,0.115033,9.60364e8,1.10474e8,9.66697e8
6.28319,217.150,97.497,0.0176116,164260,0.119043,9.26143e8,1.10251e8,9.32682e8
6.28319,225.436,100.280,0.0176892,159112,0.122169,8.92850e8,1.09079e8,8.99489e8
6.28319,233.719,103.016,0.0177640,154101,0.125424,8.60748e8,1.07959e8,8.67492e8
6.28319,242.005,105.814,0.0178391,148955,0.126676,8.28373e8,1.04935e8,8.34993e8
6.28319,250.288,108.635,0.0179132,144099,0.130387,7.97676e8,1.04007e8,8.04428e8
6.28319,258.573,111.416,0.0179824,139430,0.135223,7.68376e8,1.03902e8,7.75370e8
6.28319,266.857,114.198,0.0180469,134767,0.134745,7.40072e8,9.97209e7,7.46760e8
6.28319,275.142,116.964,0.0181115,130284,0.138384,7.12550e8,9.86054e7,7.19341e8
6.28319,283.427,119.734,0.0181800,125970,0.143661,6.85863e8,9.85320e7,6.92904e8
6.28319,291.711,122.490,0.0182371,121886,0.146029,6.61330e8,9.65732e7,6.68344e8
6.28319,299.996,125.228,0.0182979,117557,0.148963,6.35450e8,9.46586e7,6.42462e8
6.28319,308.279,128.060,0.0183616,113383,0.153427,6.10357e8,9.36450e7,6.17499e8
6.28319,316.565,130.542,0.0184251,108874,0.159067,5.83565e8,9.28260e7,5.90902e8
6.28319,324.848,130.284,0.0184729,105265,0.157072,5.62932e8,8.84207e7,5.69834e8